File: publish-src/test-pub/beam_data.csv
Time (sec),Extension (mm),Load (N)
0.00000,46.17077,-0.03876
1.50000,46.13062,-0.70393
3.00000,45.94562,-4.91023
4.50000,45.88781,-7.62164
6.00000,45.86218,-9.67834
7.50000,45.83390,-11.99377
9.00000,45.80421,-14.53785
10.50000,45.77609,-17.21242
12.00000,45.75093,-19.54963
13.50000,45.72671,-22.19669
15.00000,45.70952,-25.06342
16.50000,45.69703,-27.43801
18.00000,45.68468,-29.98518
19.50000,45.67280,-32.57495
21.00000,45.66327,-34.87514
22.50000,45.65265,-37.60018
24.00000,45.64327,-40.01654
25.50000,45.63484,-42.38651
27.00000,45.62640,-44.91594
28.50000,45.61796,-47.52139
30.00000,45.61015,-49.95469
31.50000,45.60249,-52.44274
33.00000,45.59437,-55.08117
34.50000,45.58718,-57.52863
36.00000,45.58031,-59.89719
37.50000,45.57312,-62.42245
39.00000,45.56546,-65.10949
40.50000,45.55859,-67.52484
42.00000,45.55187,-69.92134
43.50000,45.54484,-72.43444
45.00000,45.53781,-75.08136
46.50000,45.53109,-77.50685
48.00000,45.52452,-79.91920
49.50000,45.51749,-82.43605
51.00000,45.51062,-84.99760
52.50000,45.50390,-87.50911
54.00000,45.49765,-89.88034
55.50000,45.49093,-92.42917
57.00000,45.48405,-95.02324
58.50000,45.47734,-97.53180
60.00000,45.47077,-99.93114
61.50000,45.46421,-102.432
63.00000,45.45749,-104.936
64.50000,45.45093,-107.519
66.00000,45.44421,-109.999
67.50000,45.43781,-112.434
69.00000,45.43109,-114.966
70.50000,45.42452,-117.525
72.00000,45.41812,-119.93
73.50000,45.41187,-122.427
75.00000,45.40531,-124.955
76.50000,45.39859,-127.545
78.00000,45.39218,-130.005
79.50000,45.38577,-132.467
81.00001,45.37952,-134.893
82.50001,45.37312,-137.454
84.00001,45.36656,-140.055
85.50001,45.36015,-142.567
87.00001,45.35406,-144.936
88.50001,45.34765,-147.398
90.00001,45.34109,-150.075
91.50001,45.33499,-152.493
93.00001,45.32906,-154.943
94.50001,45.32281,-157.455
96.00001,45.31640,-159.993
97.50001,45.30999,-162.593
99.00001,45.30406,-164.94
100.5,45.29796,-167.441
102,45.29202,-169.895
103.5,45.28593,-172.462
105,45.27984,-174.978
106.5,45.27374,-177.509
108,45.26796,-179.952
109.5,45.26202,-182.422
111,45.25609,-184.992
112.5,45.25030,-187.512
114,45.24453,-189.984
115.5,45.23890,-192.44
117,45.23296,-194.979
118.5,45.22702,-197.55
120,45.22124,-200.042
121.5,45.21577,-202.464
123,45.21031,-204.887
124.5,45.20452,-207.428
126,45.19874,-210.033
127.5,45.19312,-212.513
129,45.18749,-214.986
130.5,45.18202,-217.425
132,45.17640,-219.924
133.5,45.17077,-222.5
135,45.16515,-225.037
136.5,45.15968,-227.472
138,45.15421,-229.947
139.5,45.14859,-232.477
141,45.14296,-235.03
142.5,45.13749,-237.514
144,45.13203,-239.987
145.5,45.12687,-242.405
147,45.12140,-244.926
148.5,45.11593,-247.464
150,45.11031,-250.053
151.5,45.10499,-252.505
153,45.09968,-254.944
154.5,45.09437,-257.407
156,45.08890,-259.959
157.5,45.08359,-262.512
159,45.07827,-264.984
160.5,45.07296,-267.469
162,45.06781,-269.937
163.5,45.06234,-272.469
165,45.05687,-275.037
166.5,45.05156,-277.504
168,45.04624,-279.955
169.5,45.04109,-282.413
171,45.03578,-284.922
172.5,45.03046,-287.487
174,45.02499,-290.036
175.5,45.01968,-292.523
177,45.01452,-294.976
178.5,45.00921,-297.422
180,45.00390,-299.931
181.5,44.99859,-302.503
183,44.99327,-305.024
184.5,44.98812,-307.484
186,44.98296,-309.925
187.5,44.97765,-312.469
189,44.97218,-315.009
190.5,44.96703,-317.526
192,44.96187,-319.955
193.5,44.95671,-322.423
195,44.95155,-324.933
196.5,44.94624,-327.504
198,44.94093,-330.053
199.5,44.93562,-332.565
201,44.93046,-334.973
202.5,44.92546,-337.428
204,44.92015,-339.95
205.5,44.91499,-342.479
207,44.90968,-345.015
208.5,44.90453,-347.494
210,44.89952,-349.935
211.5,44.89421,-352.461
213,44.88890,-354.98
214.5,44.88374,-357.542
216,44.87859,-360.015
217.5,44.87343,-362.443
219,44.86828,-364.94
220.5,44.86312,-367.471
222,44.85781,-370.04
223.5,44.85265,-372.499
225,44.84749,-374.97
226.5,44.84234,-377.445
228,44.83734,-379.895
229.5,44.83202,-382.446
231,44.82687,-385.013
232.5,44.82156,-387.512
234,44.81640,-390.017
235.5,44.81125,-392.463
237,44.80609,-394.965
238.5,44.80077,-397.508
240,44.79562,-400.012
241.5,44.79062,-402.472
243,44.78562,-404.943
244.5,44.78031,-407.481
246,44.77499,-409.99
247.5,44.76953,-412.568
249,44.76453,-414.98
250.5,44.75937,-417.438
252,44.75437,-419.882
253.5,44.74906,-422.452
255,44.74374,-425.021
256.5,44.73843,-427.536
258,44.73327,-429.972
259.5,44.72812,-432.451
261,44.72296,-434.913
262.5,44.71765,-437.498
264,44.71250,-439.97
265.5,44.70718,-442.489
267,44.70202,-444.962
268.5,44.69671,-447.47
270,44.69140,-449.988
271.5,44.68609,-452.538
273,44.68077,-454.994
274.5,44.67562,-457.447
276,44.67046,-459.901
277.5,44.66515,-462.433
279,44.65968,-465.006
280.5,44.65437,-467.516
282,44.64890,-470.04
283.5,44.64374,-472.453
285,44.63843,-474.933
286.5,44.63281,-477.507
288,44.62750,-480.014
289.5,44.62218,-482.422
291,44.61671,-484.959
292.5,44.61124,-487.459
294,44.60562,-490.009
295.5,44.59984,-492.53
297,44.59437,-494.985
298.5,44.58890,-497.383
300,44.58312,-499.921
301.5,44.57749,-502.462
303,44.57171,-505.058
304.5,44.56609,-507.521
306,44.56062,-509.952
307.5,44.55515,-512.425
309,44.54952,-514.973
310.5,44.54390,-517.483
312,44.53827,-520.026
313.5,44.53281,-522.469
315,44.52718,-524.942
316.5,44.52140,-527.5
318,44.51577,-530.05
319.5,44.51015,-532.472
321,44.50468,-534.897
322.5,44.49905,-537.433
324,44.49327,-539.949
325.5,44.48749,-542.532
327,44.48171,-545.068
328.5,44.47624,-547.49
330,44.47062,-549.93
331.5,44.46484,-552.442
333,44.45906,-555
334.5,44.45343,-557.431
336,44.44781,-559.956
337.5,44.44202,-562.474
339,44.43609,-564.994
340.5,44.43015,-567.537
342,44.42437,-570.055
343.5,44.41874,-572.451
345,44.41296,-574.919
346.5,44.40702,-577.486
348,44.40109,-580.056
349.5,44.39515,-582.52
351,44.38937,-584.931
352.5,44.38359,-587.412
354,44.37749,-589.943
355.5,44.37140,-592.549
357,44.36546,-595.006
358.5,44.35952,-597.468
360,44.35359,-599.967
361.5,44.34734,-602.499
363,44.34124,-604.996
364.5,44.33546,-607.424
366,44.32937,-609.926
367.5,44.32327,-612.443
369,44.31703,-615.071
370.5,44.31093,-617.555
372,44.30499,-619.949
373.5,44.29890,-622.419
375,44.29281,-624.925
376.5,44.28640,-627.538
378,44.28015,-630.051
379.5,44.27405,-632.437
381,44.26765,-634.938
382.5,44.26109,-637.494
384,44.25484,-639.97
385.5,44.24843,-642.47
387,44.24218,-644.944
388.5,44.23546,-647.527
390,44.22890,-650.046
391.5,44.22249,-652.482
393,44.21609,-654.945
394.5,44.20952,-657.391
396,44.20265,-660.102
397.5,44.19609,-662.567
399,44.18952,-664.958
400.5,44.18265,-667.45
402,44.17577,-670.011
403.5,44.16906,-672.426
405,44.16202,-674.915
406.5,44.15468,-677.505
408,44.14734,-680.095
409.5,44.13999,-682.606
411,44.13296,-684.943
412.5,44.12562,-687.412
414,44.11765,-690.07
415.5,44.10968,-692.586
417,44.10187,-694.958
418.5,44.09374,-697.453
420,44.08531,-699.912
421.5,44.07655,-702.426
423,44.06703,-705.057
424.5,44.05718,-707.499
426,44.04702,-709.931
427.5,44.03546,-712.511
429,44.02265,-715.011
430.5,44.00812,-717.492
432,43.99078,-719.97
433.5,43.96734,-722.584
435,43.92187,-724.417
436.052,41.76218,-386.066